#K-Path(1/A) Energy-Level(eV)
# NKPTS & NBANDS:  30  13
# Band-Index    1
   0.00000    -14.128261
   0.12634    -14.085136
   0.25268    -13.958491
   0.37902    -13.756723
   0.50536    -13.494504
   0.63170    -13.193891
   0.75804    -12.885845
   0.88438    -12.611193
   1.01073    -12.417507
   1.13707    -12.347083
   1.13707    -12.347083
   1.21001    -12.340776
   1.28295    -12.322344
   1.35589    -12.293285
   1.42884    -12.256069
   1.50178    -12.214140
   1.57472    -12.171885
   1.64767    -12.134436
   1.72061    -12.107553
   1.79355    -12.097284
   1.79355    -12.097284
   1.93944    -12.148411
   2.08532    -12.316656
   2.23121    -12.595269
   2.37709    -12.943813
   2.52298    -13.308625
   2.66886    -13.640938
   2.81475    -13.903502
   2.96064    -14.070860
   3.10652    -14.128261
 
# Band-Index    2
   3.10652    -12.925689
   2.96064    -12.898215
   2.81475    -12.818310
   2.66886    -12.693374
   2.52298    -12.535808
   2.37709    -12.362785
   2.23121    -12.195573
   2.08532    -12.057743
   1.93944    -11.969795
   1.79355    -11.941244
   1.79355    -11.941244
   1.72061    -11.947427
   1.64767    -11.964160
   1.57472    -11.988163
   1.50178    -12.015897
   1.42884    -12.043930
   1.35589    -12.069140
   1.28295    -12.089006
   1.21001    -12.101687
   1.13707    -12.106027
   1.13707    -12.106027
   1.01073    -12.136257
   0.88438    -12.220806
   0.75804    -12.343612
   0.63170    -12.484600
   0.50536    -12.624737
   0.37902    -12.748578
   0.25268    -12.844555
   0.12634    -12.905048
   0.00000    -12.925689
 
# Band-Index    3
   0.00000     -5.651329
   0.12634     -5.599777
   0.25268     -5.454989
   0.37902     -5.252219
   0.50536     -5.076765
   0.63170     -5.078883
   0.75804     -5.286513
   0.88438     -5.545328
   1.01073     -5.741053
   1.13707     -5.813437
   1.13707     -5.813437
   1.21001     -5.793525
   1.28295     -5.734279
   1.35589     -5.637257
   1.42884     -5.505047
   1.50178     -5.341456
   1.57472     -5.286286
   1.64767     -5.371003
   1.72061     -5.428421
   1.79355     -5.449213
   1.79355     -5.449213
   1.93944     -5.356276
   2.08532     -5.143950
   2.23121     -5.165126
   2.37709     -5.043686
   2.52298     -4.981313
   2.66886     -5.146761
   2.81475     -5.394716
   2.96064     -5.582851
   3.10652     -5.651329
 
# Band-Index    4
   3.10652     -2.712795
   2.96064     -2.846583
   2.81475     -3.188112
   2.66886     -3.594122
   2.52298     -3.865122
   2.37709     -4.025879
   2.23121     -4.606637
   2.08532     -5.069555
   1.93944     -4.912226
   1.79355     -4.638588
   1.79355     -4.638588
   1.72061     -4.745904
   1.64767     -4.946022
   1.57472     -5.152091
   1.50178     -5.186049
   1.42884     -5.083403
   1.35589     -4.991076
   1.28295     -4.919202
   1.21001     -4.874321
   1.13707     -4.859110
   1.13707     -4.859110
   1.01073     -4.783719
   0.88438     -4.568694
   0.75804     -4.243247
   0.63170     -3.943268
   0.50536     -3.771248
   0.37902     -3.441641
   0.25268     -3.084876
   0.12634     -2.814306
   0.00000     -2.712795
 
# Band-Index    5
   0.00000     -2.712762
   0.12634     -2.665190
   0.25268     -2.549348
   0.37902     -2.979414
   0.50536     -3.416198
   0.63170     -3.846619
   0.75804     -3.980391
   0.88438     -4.034719
   1.01073     -4.111790
   1.13707     -4.147101
   1.13707     -4.147101
   1.21001     -4.140135
   1.28295     -4.120219
   1.35589     -4.089705
   1.42884     -4.052229
   1.50178     -4.013657
   1.57472     -3.982586
   1.64767     -3.979658
   1.72061     -4.052559
   1.79355     -4.139664
   1.79355     -4.139664
   1.93944     -3.853153
   2.08532     -3.694618
   2.23121     -3.723927
   2.37709     -3.846261
   2.52298     -3.473290
   2.66886     -3.072574
   2.81475     -2.654398
   2.96064     -2.649641
   3.10652     -2.712762
 
# Band-Index    6
   3.10652     -1.849059
   2.96064     -2.197727
   2.81475     -2.470979
   2.66886     -2.533214
   2.52298     -3.079317
   2.37709     -3.358409
   2.23121     -3.392713
   2.08532     -3.278538
   1.93944     -3.542054
   1.79355     -3.653662
   1.79355     -3.653662
   1.72061     -3.603063
   1.64767     -3.389283
   1.57472     -3.141788
   1.50178     -3.202303
   1.42884     -3.242694
   1.35589     -3.260885
   1.28295     -3.261162
   1.21001     -3.253570
   1.13707     -3.249495
   1.13707     -3.249495
   1.01073     -3.213275
   0.88438     -3.106231
   0.75804     -2.933560
   0.63170     -2.703964
   0.50536     -2.432752
   0.37902     -2.309243
   0.25268     -2.526089
   0.12634     -2.138277
   0.00000     -1.849059
 
# Band-Index    7
   0.00000     -1.602891
   0.12634     -1.677154
   0.25268     -1.875301
   0.37902     -2.144097
   0.50536     -2.037313
   0.63170     -1.743666
   0.75804     -1.718252
   0.88438     -1.860147
   1.01073     -1.943303
   1.13707     -1.970633
   1.13707     -1.970633
   1.21001     -1.966540
   1.28295     -1.958858
   1.35589     -1.957512
   1.42884     -2.235351
   1.50178     -2.645768
   1.57472     -3.043815
   1.64767     -3.070043
   1.72061     -3.004946
   1.79355     -2.976347
   1.79355     -2.976347
   1.93944     -3.088231
   2.08532     -3.121318
   2.23121     -2.603799
   2.37709     -2.178379
   2.52298     -2.045385
   2.66886     -2.224455
   2.81475     -2.024754
   2.96064     -1.706408
   3.10652     -1.602891
 
# Band-Index    8
   3.10652     -1.602865
   2.96064     -1.337310
   2.81475     -1.111422
   2.66886     -1.029369
   2.52298     -1.081542
   2.37709     -1.251118
   2.23121     -1.512395
   2.08532     -1.824326
   1.93944     -2.118520
   1.79355     -2.257450
   1.79355     -2.257450
   1.72061     -2.224795
   1.64767     -2.152391
   1.57472     -2.074470
   1.50178     -2.011857
   1.42884     -1.972855
   1.35589     -1.840056
   1.28295     -1.485472
   1.21001     -1.203261
   1.13707     -1.069803
   1.13707     -1.069803
   1.01073     -1.115428
   0.88438     -1.251088
   0.75804     -1.468849
   0.63170     -1.525255
   0.50536     -1.317318
   0.37902     -1.175710
   0.25268     -1.190384
   0.12634     -1.379743
   0.00000     -1.602865
 
# Band-Index    9
   0.00000     -0.137535
   0.12634     -0.158645
   0.25268     -0.240018
   0.37902     -0.420179
   0.50536     -0.694674
   0.63170     -0.960974
   0.75804     -1.074419
   0.88438     -0.988257
   1.01073     -0.820007
   1.13707     -0.738686
   1.13707     -0.738686
   1.21001     -0.674807
   1.28295     -0.587448
   1.35589     -0.520411
   1.42884     -0.463128
   1.50178     -0.401160
   1.57472     -0.327265
   1.64767     -0.245112
   1.72061     -0.172960
   1.79355     -0.141503
   1.79355     -0.141503
   1.93944     -0.278704
   2.08532     -0.563828
   2.23121     -0.803998
   2.37709     -0.921234
   2.52298     -0.822113
   2.66886     -0.528920
   2.81475     -0.282532
   2.96064     -0.166275
   3.10652     -0.137535
 
# Band-Index   10
   3.10652      2.641560
   2.96064      2.547029
   2.81475      2.338313
   2.66886      2.041537
   2.52298      1.841716
   2.37709      1.816622
   2.23121      2.003943
   2.08532      1.954671
   1.93944      1.666595
   1.79355      1.508802
   1.79355      1.508802
   1.72061      1.548227
   1.64767      1.647169
   1.57472      1.770950
   1.50178      1.891095
   1.42884      1.986817
   1.35589      2.043251
   1.28295      2.056656
   1.21001      2.045054
   1.13707      2.037158
   1.13707      2.037158
   1.01073      2.027177
   0.88438      2.016686
   0.75804      2.043968
   0.63170      2.054318
   0.50536      2.031648
   0.37902      2.159138
   0.25268      2.428727
   0.12634      2.569680
   0.00000      2.641538
 
# Band-Index   11
   0.00000      2.641636
   0.12634      2.720612
   0.25268      2.446879
   0.37902      2.439558
   0.50536      2.287059
   0.63170      2.134773
   0.75804      2.174605
   0.88438      2.336063
   1.01073      2.483188
   1.13707      2.546667
   1.13707      2.546667
   1.21001      2.553908
   1.28295      2.583611
   1.35589      2.652636
   1.42884      2.766025
   1.50178      2.909183
   1.57472      3.061028
   1.64767      2.986905
   1.72061      2.930093
   1.79355      2.913048
   1.79355      2.913048
   1.93944      2.949190
   2.08532      2.731641
   2.23121      2.394364
   2.37709      2.328129
   2.52298      2.294533
   2.66886      2.332807
   2.81475      2.385339
   2.96064      2.683421
   3.10652      2.641636
 
# Band-Index   12
   3.10652      2.855169
   2.96064      2.748221
   2.81475      2.598099
   2.66886      2.383810
   2.52298      2.434546
   2.37709      2.638968
   2.23121      2.851218
   2.08532      2.962885
   1.93944      3.164689
   1.79355      3.339373
   1.79355      3.339373
   1.72061      3.300414
   1.64767      3.199308
   1.57472      3.091876
   1.50178      3.245965
   1.42884      3.441524
   1.35589      3.657530
   1.28295      3.825911
   1.21001      3.796217
   1.13707      3.772122
   1.13707      3.772122
   1.01073      3.713645
   0.88438      3.535158
   0.75804      3.252180
   0.63170      2.917246
   0.50536      2.614526
   0.37902      2.476485
   0.25268      2.663743
   0.12634      2.722221
   0.00000      2.855176
 
# Band-Index   13
   0.00000      2.855199
   0.12634      2.803027
   0.25268      2.929699
   0.37902      3.205021
   0.50536      3.484592
   0.63170      3.724459
   0.75804      3.906717
   0.88438      4.028917
   1.01073      4.097392
   1.13707      4.119082
   1.13707      4.119084
   1.21001      4.060813
   1.28295      3.947759
   1.35589      4.023078
   1.42884      4.166514
   1.50178      4.321169
   1.57472      4.464572
   1.64767      4.578255
   1.72061      4.649245
   1.79355      4.672467
   1.79355      4.672467
   1.93944      4.597471
   2.08532      4.447799
   2.23121      4.305017
   2.37709      4.122771
   2.52298      3.826365
   2.66886      3.435034
   2.81475      3.039868
   2.96064      2.785365
   3.10652      2.855210
