#K-Path(1/A) Energy-Level(eV)
# NKPTS & NBANDS: 160   5
# Band-Index    1
   0.00000     -3.767790
   0.05000     -3.759125
   0.10000     -3.733131
   0.15001     -3.689810
   0.20001     -3.629168
   0.25001     -3.551216
   0.30001     -3.455968
   0.35001     -3.343447
   0.40002     -3.213693
   0.45002     -3.066749
   0.50002     -2.902691
   0.55002     -2.721640
   0.60002     -2.523797
   0.65003     -2.309515
   0.70003     -2.079477
   0.75003     -1.835174
   0.80003     -1.580435
   0.85003     -1.327570
   0.90003     -1.123330
   0.95004     -1.095800
   0.95004     -1.095800
   0.97891     -1.092934
   1.00777     -1.084336
   1.03664     -1.070005
   1.06551     -1.049943
   1.09438     -1.024148
   1.12325     -0.992619
   1.15212     -0.955355
   1.18099     -0.912355
   1.20985     -0.863618
   1.23872     -0.809142
   1.26759     -0.748926
   1.29646     -0.682968
   1.32533     -0.611267
   1.35420     -0.533819
   1.38307     -0.450623
   1.41194     -0.361675
   1.44080     -0.266976
   1.46967     -0.166521
   1.49854     -0.060310
   1.49854     -0.060310
   1.58983     -0.689876
   1.68112     -1.611185
   1.77241     -2.548045
   1.86370     -3.452510
   1.95499     -4.311177
   2.04628     -5.118524
   2.13758     -5.871724
   2.22887     -6.568918
   2.32016     -7.208851
   2.41145     -7.790473
   2.50274     -8.312976
   2.59403     -8.775634
   2.68532     -9.177828
   2.77661     -9.519050
   2.86790     -9.798837
   2.95919    -10.016839
   3.05048    -10.172739
   3.14177    -10.266380
   3.23306    -10.297590
   3.23306    -10.297590
   3.31472    -10.272624
   3.39637    -10.197704
   3.47802    -10.072942
   3.55967     -9.898451
   3.64133     -9.674400
   3.72298     -9.401062
   3.80463     -9.078690
   3.88629     -8.707673
   3.96794     -8.288388
   4.04959     -7.821309
   4.13124     -7.307037
   4.21290     -6.746238
   4.29455     -6.139869
   4.37620     -5.489200
   4.45786     -4.796374
   4.53951     -4.065653
   4.62116     -3.308090
   4.70281     -2.567289
   4.78447     -2.129266
   4.78447     -2.129266
   4.82529     -2.123546
   4.86612     -2.106384
   4.90695     -2.077783
   4.94777     -2.037737
   4.98860     -1.986246
   5.02943     -1.923304
   5.07025     -1.848908
   5.11108     -1.763052
   5.15190     -1.665735
   5.19273     -1.556947
   5.23356     -1.436681
   5.27438     -1.304929
   5.31521     -1.161685
   5.35604     -1.006934
   5.39686     -0.840671
   5.43769     -0.662887
   5.47852     -0.473571
   5.51934     -0.272715
   5.56017     -0.060310
   5.56017     -0.060310
   5.61791     -0.210153
   5.67564     -0.517992
   5.73338     -0.859090
   5.79112     -1.197160
   5.84886     -1.520993
   5.90659     -1.826253
   5.96433     -2.110953
   6.02207     -2.374069
   6.07980     -2.615028
   6.13754     -2.833488
   6.19528     -3.029235
   6.25302     -3.202133
   6.31075     -3.352089
   6.36849     -3.479051
   6.42623     -3.582970
   6.48397     -3.663819
   6.54170     -3.721578
   6.59944     -3.756237
   6.65718     -3.767790
   6.65718     -3.767790
   6.72789     -4.353570
   6.79860     -4.982488
   6.86932     -5.579405
   6.94003     -6.142627
   7.01074     -6.671527
   7.08146     -7.165706
   7.15217     -7.624759
   7.22288     -8.048355
   7.29360     -8.436214
   7.36431     -8.788016
   7.43502     -9.103516
   7.50574     -9.382484
   7.57645     -9.624684
   7.64716     -9.829962
   7.71788     -9.998146
   7.78859    -10.129069
   7.85931    -10.222675
   7.93002    -10.278868
   8.00073    -10.297590
   8.00073    -10.297590
   8.08734    -10.269502
   8.17394    -10.185224
   8.26055    -10.044889
   8.34716     -9.848641
   8.43376     -9.596719
   8.52037     -9.289423
   8.60697     -8.927098
   8.69358     -8.510182
   8.78019     -8.039128
   8.86679     -7.514507
   8.95340     -6.936888
   9.04000     -6.306973
   9.12661     -5.625529
   9.21321     -4.893430
   9.29982     -4.111793
   9.38643     -3.282008
   9.47303     -2.406358
   9.55964     -1.489720
   9.64624     -1.095800
 
# Band-Index    2
   9.64624     -0.556843
   9.55964     -0.743226
   9.47303     -0.338797
   9.38643      0.117562
   9.29982      0.625924
   9.21321      1.186320
   9.12661      1.798795
   9.04000      2.463325
   8.95340      3.179805
   8.86679      3.948002
   8.78019      4.767582
   8.69358      5.637927
   8.60697      6.557984
   8.52037      7.526081
   8.43376      8.539317
   8.34716      9.592398
   8.26055     10.674823
   8.17394     11.762105
   8.08734     12.778471
   8.00073     13.347229
   8.00073     13.347229
   7.93002     12.859462
   7.85931     11.935470
   7.78859     10.906831
   7.71788      9.848838
   7.64716      8.787570
   7.57645      7.735282
   7.50574      6.698844
   7.43502      5.682520
   7.36431      4.689257
   7.29360      3.721116
   7.22288      2.779638
   7.15217      1.866072
   7.08146      0.981396
   7.01074      0.126417
   6.94003     -0.698093
   6.86932     -1.491462
   6.79860     -2.252885
   6.72789     -2.980546
   6.65718     -3.599244
   6.65718     -3.599244
   6.59944     -3.587022
   6.54170     -3.550357
   6.48397     -3.489307
   6.42623     -3.403975
   6.36849     -3.294525
   6.31075     -3.161157
   6.25302     -3.004145
   6.19528     -2.823832
   6.13754     -2.620682
   6.07980     -2.395318
   6.02207     -2.148577
   5.96433     -1.881659
   5.90659     -1.596404
   5.84886     -1.295745
   5.79112     -0.984824
   5.73338     -0.673404
   5.67564     -0.381678
   5.61791     -0.152696
   5.56017     -0.060309
   5.56017     -0.060309
   5.51934      0.163654
   5.47852      0.399184
   5.43769      0.646280
   5.39686      0.505981
   5.35604      0.347126
   5.31521      0.194702
   5.27438      0.050836
   5.23356     -0.083267
   5.19273     -0.206883
   5.15190     -0.319531
   5.11108     -0.420895
   5.07025     -0.510735
   5.02943     -0.588862
   4.98860     -0.655153
   4.94777     -0.709519
   4.90695     -0.751870
   4.86612     -0.782157
   4.82529     -0.800359
   4.78447     -0.806424
   4.78447     -0.806424
   4.70281     -0.325091
   4.62116      0.545634
   4.53951      1.519646
   4.45786      2.553130
   4.37620      3.634819
   4.29455      4.760047
   4.21290      5.926120
   4.13124      7.130882
   4.04959      8.021431
   3.96794      8.451444
   3.88629      8.897099
   3.80463      9.384435
   3.72298      9.912715
   3.64133     10.480698
   3.55967     11.085981
   3.47802     11.723387
   3.39637     12.379407
   3.31472     13.004493
   3.23306     13.347229
   3.23306     13.347229
   3.14177     12.778267
   3.05048     11.771213
   2.95919     10.699718
   2.86790      9.638429
   2.77661      8.611824
   2.68532      7.630568
   2.59403      6.700041
   2.50274      5.823220
   2.41145      5.001790
   2.32016      4.236812
   2.22887      3.528902
   2.13758      2.878405
   2.04628      2.285516
   1.95499      1.750337
   1.86370      1.272896
   1.77241      0.853167
   1.68112      0.491101
   1.58983      0.186625
   1.49854     -0.060309
   1.49854     -0.060309
   1.46967      0.015422
   1.44080      0.033486
   1.41194      0.013468
   1.38307     -0.027575
   1.35420     -0.078864
   1.32533     -0.134223
   1.29646     -0.190116
   1.26759     -0.244455
   1.23872     -0.295953
   1.20985     -0.343790
   1.18099     -0.387415
   1.15212     -0.426459
   1.12325     -0.460660
   1.09438     -0.489834
   1.06551     -0.513851
   1.03664     -0.532615
   1.00777     -0.546061
   0.97891     -0.554146
   0.95004     -0.556843
   0.95004     -0.556843
   0.90003     -0.839156
   0.85003     -1.097826
   0.80003     -1.353439
   0.75003     -1.606092
   0.70003     -1.850548
   0.65003     -2.083181
   0.60002     -2.301836
   0.55002     -2.505199
   0.50002     -2.692412
   0.45002     -2.862899
   0.40002     -3.016237
   0.35001     -3.152092
   0.30001     -3.270246
   0.25001     -3.370501
   0.20001     -3.452713
   0.15001     -3.516765
   0.10000     -3.562572
   0.05000     -3.590079
   0.00000     -3.599244
 
# Band-Index    3
   0.00000     12.070381
   0.05000     11.646023
   0.10000     11.037600
   0.15001     10.360746
   0.20001      9.650620
   0.25001      8.926398
   0.30001      8.198998
   0.35001      7.474899
   0.40002      6.758186
   0.45002      6.051618
   0.50002      5.357232
   0.55002      4.676673
   0.60002      4.011472
   0.65003      3.363334
   0.70003      2.734631
   0.75003      2.129232
   0.80003      1.554713
   0.85003      1.028683
   0.90003      0.597778
   0.95004      0.369489
   0.95004      0.369489
   0.97891      0.372348
   1.00777      0.380929
   1.03664      0.395188
   1.06551      0.415083
   1.09438      0.440551
   1.12325      0.471498
   1.15212      0.507791
   1.18099      0.549247
   1.20985      0.595599
   1.23872      0.646483
   1.26759      0.701328
   1.29646      0.759292
   1.32533      0.819021
   1.35420      0.878272
   1.38307      0.933223
   1.41194      0.977537
   1.44080      1.002563
   1.46967      1.004526
   1.49854      0.998742
   1.49854      0.998742
   1.58983      1.283588
   1.68112      1.759022
   1.77241      2.222588
   1.86370      2.692540
   1.95499      3.195346
   2.04628      3.741140
   2.13758      4.332669
   2.22887      4.969683
   2.32016      5.650507
   2.41145      6.372517
   2.50274      7.132304
   2.59403      7.925592
   2.68532      8.747248
   2.77661      9.590904
   2.86790     10.448474
   2.95919     11.308837
   3.05048     12.152757
   3.14177     12.925771
   3.23306     13.347229
   3.23306     13.347229
   3.31472     13.004494
   3.39637     12.379408
   3.47802     11.723388
   3.55967     11.085982
   3.64133     10.480699
   3.72298      9.912716
   3.80463      9.384436
   3.88629      8.897100
   3.96794      8.451445
   4.04959      8.047905
   4.13124      7.607714
   4.21290      7.241349
   4.29455      6.922960
   4.37620      6.652989
   4.45786      6.431755
   4.53951      6.259480
   4.62116      6.136305
   4.70281      6.062371
   4.78447      6.037719
   4.78447      6.037719
   4.82529      5.726285
   4.86612      5.316267
   4.90695      4.910335
   4.94777      4.514059
   4.98860      4.128613
   5.02943      3.754390
   5.07025      3.391571
   5.11108      3.040250
   5.15190      2.700457
   5.19273      2.372227
   5.23356      2.055583
   5.27438      1.750532
   5.31521      1.457078
   5.35604      1.175221
   5.39686      0.904956
   5.43769      0.667068
   5.47852      0.821158
   5.51934      0.946313
   5.56017      0.998742
   5.56017      0.998742
   5.61791      1.171897
   5.67564      1.549631
   5.73338      2.007156
   5.79112      2.508088
   5.84886      3.041040
   5.90659      3.601447
   5.96433      4.186991
   6.02207      4.796210
   6.07980      5.427927
   6.13754      6.080932
   6.19528      6.753772
   6.25302      7.444510
   6.31075      8.150350
   6.36849      8.867020
   6.42623      9.587605
   6.48397     10.300571
   6.54170     10.986229
   6.59944     11.611309
   6.65718     12.070381
   6.65718     12.070381
   6.72789     11.941454
   6.79860     11.790268
   6.86932     11.666679
   6.94003     11.573571
   7.01074     11.511503
   7.08146     11.480600
   7.15217     11.480837
   7.22288     11.512102
   7.29360     11.574206
   7.36431     11.666861
   7.43502     11.789631
   7.50574     11.941841
   7.57645     12.122384
   7.64716     12.329361
   7.71788     12.559277
   7.78859     12.805117
   7.85931     13.050947
   7.93002     13.258197
   8.00073     13.347229
   8.00073     13.347229
   8.08734     12.955574
   8.17394     12.204108
   8.26055     11.359717
   8.34716     10.482981
   8.43376      9.597454
   8.52037      8.717079
   8.60697      7.851694
   8.69358      7.008703
   8.78019      6.193948
   8.86679      5.412123
   8.95340      4.667033
   9.04000      3.961832
   9.12661      3.299205
   9.21321      2.681491
   9.29982      2.110752
   9.38643      1.588992
   9.47303      1.118610
   9.55964      0.704199
   9.64624      0.369489
 
# Band-Index    4
   9.64624      7.293205
   9.55964      7.622647
   9.47303      8.000468
   9.38643      8.426646
   9.29982      8.901091
   9.21321      9.423590
   9.12661      9.993744
   9.04000     10.610840
   8.95340     11.273560
   8.86679     11.979437
   8.78019     12.723444
   8.69358     13.493640
   8.60697     14.253474
   8.52037     14.328819
   8.43376     14.029315
   8.34716     13.784017
   8.26055     13.593023
   8.17394     13.456504
   8.08734     13.374553
   8.00073     13.347231
   8.00073     13.347230
   7.93002     13.258199
   7.85931     13.050947
   7.78859     12.805118
   7.71788     12.559277
   7.64716     12.329361
   7.57645     12.122384
   7.50574     11.941841
   7.43502     11.789631
   7.36431     11.666861
   7.29360     11.574206
   7.22288     11.512102
   7.15217     11.480837
   7.08146     11.480600
   7.01074     11.511503
   6.94003     11.573574
   6.86932     11.666680
   6.79860     11.790270
   6.72789     11.941489
   6.65718     12.071484
   6.65718     12.070600
   6.59944     11.613524
   6.54170     11.026006
   6.48397     10.395472
   6.42623      9.742563
   6.36849      9.080597
   6.31075      8.418372
   6.25302      7.761778
   6.19528      7.114956
   6.13754      6.480959
   6.07980      5.862299
   6.02207      5.261194
   5.96433      4.679877
   5.90659      4.120916
   5.84886      3.587843
   5.79112      3.086239
   5.73338      2.626194
   5.67564      2.228163
   5.61791      1.935341
   5.56017      1.821657
   5.56017      1.821657
   5.51934      1.884810
   5.47852      2.042105
   5.43769      2.249620
   5.39686      2.485291
   5.35604      2.739607
   5.31521      3.007998
   5.27438      3.287841
   5.23356      3.577237
   5.19273      3.874538
   5.15190      4.177996
   5.11108      4.485494
   5.07025      4.794262
   5.02943      5.100462
   4.98860      5.398522
   4.94777      5.680176
   4.90695      5.933137
   4.86612      6.139882
   4.82529      6.278302
   4.78447      6.327459
   4.78447      6.327459
   4.70281      6.348681
   4.62116      6.412344
   4.53951      6.518472
   4.45786      6.667071
   4.37620      6.858176
   4.29455      7.091817
   4.21290      7.368001
   4.13124      7.686716
   4.04959      8.047906
   3.96794      8.481603
   3.88629      8.986934
   3.80463      9.535394
   3.72298     10.123653
   3.64133     10.746273
   3.55967     11.393321
   3.47802     12.045334
   3.39637     12.660778
   3.31472     13.148605
   3.23306     13.347230
   3.23306     13.347238
   3.14177     13.302733
   3.05048     13.189911
   2.95919     13.049392
   2.86790     12.914563
   2.77661     12.805996
   2.68532     12.735464
   2.59403     12.483173
   2.50274     11.272708
   2.41145     10.088061
   2.32016      8.942073
   2.22887      7.840706
   2.13758      6.788076
   2.04628      5.788009
   1.95499      4.845443
   1.86370      3.968651
   1.77241      3.175325
   1.68112      2.507013
   1.58983      2.031007
   1.49854      1.821657
   1.49854      1.821657
   1.46967      1.857498
   1.44080      1.975263
   1.41194      2.170630
   1.38307      2.422718
   1.35420      2.712047
   1.32533      3.025977
   1.29646      3.357006
   1.26759      3.700587
   1.23872      4.053800
   1.20985      4.414553
   1.18099      4.781175
   1.15212      5.152030
   1.12325      5.525200
   1.09438      5.897957
   1.06551      6.265780
   1.03664      6.620093
   1.00777      6.942642
   0.97891      7.192391
   0.95004      7.293205
   0.95004      7.293205
   0.90003      7.402976
   0.85003      7.528794
   0.80003      7.670671
   0.75003      7.828629
   0.70003      8.002686
   0.65003      8.192864
   0.60002      8.399183
   0.55002      8.621660
   0.50002      8.860323
   0.45002      9.115177
   0.40002      9.386235
   0.35001      9.673535
   0.30001      9.977067
   0.25001     10.296829
   0.20001     10.632777
   0.15001     10.984835
   0.10000     11.352681
   0.05000     11.734756
   0.00000     12.070396
 
# Band-Index    5
   0.00000     12.214807
   0.05000     12.452559
   0.10000     12.541088
   0.15001     12.460551
   0.20001     12.277079
   0.25001     12.038590
   0.30001     11.773877
   0.35001     11.499085
   0.40002     11.223550
   0.45002     10.952941
   0.50002     10.690851
   0.55002     10.439673
   0.60002     10.201058
   0.65003      9.976193
   0.70003      9.765927
   0.75003      9.570888
   0.80003      9.391511
   0.85003      9.228160
   0.90003      9.081029
   0.95004      8.950212
   0.95004      8.950212
   0.97891      9.055708
   1.00777      9.319518
   1.03664      9.665474
   1.06551     10.052537
   1.09438     10.462462
   1.12325     10.886685
   1.15212     11.320720
   1.18099     11.761912
   1.20985     12.208421
   1.23872     12.658848
   1.26759     13.111880
   1.29646     13.566157
   1.32533     14.020082
   1.35420     14.471578
   1.38307     14.917818
   1.41194     15.354721
   1.44080     15.776088
   1.46967     16.172564
   1.49854     16.527393
   1.49854     16.530618
   1.58983     15.911527
   1.68112     15.347455
   1.77241     14.838981
   1.86370     14.383923
   1.95499     13.984196
   2.04628     13.639359
   2.13758     13.349494
   2.22887     13.114405
   2.32016     12.933729
   2.41145     12.806792
   2.50274     12.732636
   2.59403     12.709684
   2.68532     13.661444
   2.77661     14.350591
   2.86790     14.510612
   2.95919     14.607462
   3.05048     14.685274
   3.14177     14.738224
   3.23306     14.757147
   3.23306     14.757147
   3.31472     14.695780
   3.39637     14.519243
   3.47802     14.248198
   3.55967     13.907816
   3.64133     13.521335
   3.72298     13.100309
   3.80463     12.267447
   3.88629     10.951208
   3.96794      9.647053
   4.04959      8.372105
   4.13124      7.686717
   4.21290      7.368002
   4.29455      7.091817
   4.37620      6.858176
   4.45786      6.667072
   4.53951      6.518473
   4.62116      6.412345
   4.70281      6.348682
   4.78447      6.327460
   4.78447      6.327460
   4.82529      6.650429
   4.86612      7.095074
   4.90695      7.558679
   4.94777      8.035671
   4.98860      8.524862
   5.02943      9.025755
   5.07025      9.538129
   5.11108     10.061845
   5.15190     10.596740
   5.19273     11.142695
   5.23356     11.699579
   5.27438     12.267243
   5.31521     12.845506
   5.35604     13.434197
   5.39686     14.033102
   5.43769     14.641987
   5.47852     15.260613
   5.51934     15.888515
   5.56017     16.527478
   5.56017     16.525451
   5.61791     16.361179
   5.67564     16.012070
   5.73338     15.686910
   5.79112     15.375672
   5.84886     15.083107
   5.90659     14.821128
   5.96433     14.581761
   6.02207     14.318144
   6.07980     14.101079
   6.13754     13.902130
   6.19528     13.720867
   6.25302     13.559023
   6.31075     13.406719
   6.36849     13.266858
   6.42623     13.130322
   6.48397     12.985176
   6.54170     12.801340
   6.59944     12.551234
   6.65718     12.214807
   6.65718     12.214807
   6.72789     12.375214
   6.79860     12.620775
   6.86932     12.901504
   6.94003     13.214158
   7.01074     13.557626
   7.08146     13.930948
   7.15217     14.332794
   7.22288     14.761114
   7.29360     15.064484
   7.36431     15.101334
   7.43502     15.164258
   7.50574     15.240286
   7.57645     15.322201
   7.64716     15.398625
   7.71788     15.452459
   7.78859     15.473370
   7.85931     15.169090
   7.93002     14.875349
   8.00073     14.757145
   8.00073     14.757145
   8.08734     14.775608
   8.17394     14.826965
   8.26055     14.908487
   8.34716     15.004407
   8.43376     15.058713
   8.52037     14.861746
   8.60697     14.682341
   8.69358     15.090618
   8.78019     14.766753
   8.86679     14.018735
   8.95340     13.298037
   9.04000     12.610067
   9.12661     11.958827
   9.21321     11.347460
   9.29982     10.778388
   9.38643     10.253423
   9.47303      9.773731
   9.55964      9.339627
   9.64624      8.950212
