#K-Path(1/A) Energy-Level(eV)
# NKPTS & NBANDS:  30  13
# Band-Index    1
   0.00000    -12.718596
   0.12634    -12.683041
   0.25268    -12.578154
   0.37902    -12.409588
   0.50536    -12.187806
   0.63170    -11.929716
   0.75804    -11.660938
   0.88438    -11.417508
   1.01073    -11.243626
   1.13707    -11.179930
   1.13707    -11.179930
   1.21001    -11.174163
   1.28295    -11.157279
   1.35589    -11.130566
   1.42884    -11.096202
   1.50178    -11.057278
   1.57472    -11.017813
   1.64767    -10.982676
   1.72061    -10.957380
   1.79355    -10.947701
   1.79355    -10.947701
   1.93944    -10.995616
   2.08532    -11.151139
   2.23121    -11.403503
   2.37709    -11.712338
   2.52298    -12.028968
   2.66886    -12.312097
   2.81475    -12.532394
   2.96064    -12.671251
   3.10652    -12.718596
 
# Band-Index    2
   3.10652    -12.299649
   2.96064    -12.252885
   2.81475    -12.115786
   2.66886    -11.898453
   2.52298    -11.619496
   2.37709    -11.308092
   2.23121    -11.005025
   2.08532    -10.757939
   1.93944    -10.605920
   1.79355    -10.559106
   1.79355    -10.559106
   1.72061    -10.568569
   1.64767    -10.593315
   1.57472    -10.627718
   1.50178    -10.666387
   1.42884    -10.704553
   1.35589    -10.738270
   1.28295    -10.764488
   1.21001    -10.781065
   1.13707    -10.786726
   1.13707    -10.786726
   1.01073    -10.848948
   0.88438    -11.019057
   0.75804    -11.257734
   0.63170    -11.521855
   0.50536    -11.775956
   0.37902    -11.994609
   0.25268    -12.160959
   0.12634    -12.264531
   0.00000    -12.299649
 
# Band-Index    3
   0.00000     -3.813770
   0.12634     -3.742091
   0.25268     -3.536027
   0.37902     -3.225128
   0.50536     -2.864008
   0.63170     -2.540721
   0.75804     -2.729533
   0.88438     -3.290510
   1.01073     -3.672888
   1.13707     -3.807643
   1.13707     -3.807643
   1.21001     -3.792790
   1.28295     -3.748267
   1.35589     -3.674361
   1.42884     -3.571666
   1.50178     -3.440811
   1.57472     -3.282838
   1.64767     -3.099105
   1.72061     -2.891055
   1.79355     -2.674228
   1.79355     -2.674228
   1.93944     -3.001761
   2.08532     -3.035189
   2.23121     -2.767091
   2.37709     -2.335273
   2.52298     -2.600800
   2.66886     -3.049202
   2.81475     -3.448054
   2.96064     -3.718475
   3.10652     -3.813770
 
# Band-Index    4
   3.10652     -2.458675
   2.96064     -2.399464
   2.81475     -2.223954
   2.66886     -1.940250
   2.52298     -1.573716
   2.37709     -2.007952
   2.23121     -2.281759
   2.08532     -2.556436
   1.93944     -2.524767
   1.79355     -2.646094
   1.79355     -2.646094
   1.72061     -2.414862
   1.64767     -2.621215
   1.57472     -2.803060
   1.50178     -2.959173
   1.42884     -3.088331
   1.35589     -3.189579
   1.28295     -3.262370
   1.21001     -3.306186
   1.13707     -3.320805
   1.13707     -3.320805
   1.01073     -3.186534
   0.88438     -2.803088
   0.75804     -2.218668
   0.63170     -1.925992
   0.50536     -1.843036
   0.37902     -2.075104
   0.25268     -2.282692
   0.12634     -2.414255
   0.00000     -2.458675
 
# Band-Index    5
   0.00000     -1.638953
   0.12634     -1.604433
   0.25268     -1.502778
   0.37902     -1.340195
   0.50536     -1.139847
   0.63170     -1.686794
   0.75804     -2.205672
   0.88438     -2.142477
   1.01073     -2.156498
   1.13707     -2.170266
   1.13707     -2.170266
   1.21001     -2.143734
   1.28295     -2.065646
   1.35589     -1.942270
   1.42884     -1.787331
   1.50178     -1.628788
   1.57472     -1.716021
   1.64767     -2.066688
   1.72061     -2.388673
   1.79355     -2.185985
   1.79355     -2.185985
   1.93944     -2.142862
   2.08532     -1.606358
   2.23121     -1.777068
   2.37709     -1.744391
   2.52298     -1.442376
   2.66886     -1.246423
   2.81475     -1.458506
   2.96064     -1.592934
   3.10652     -1.638953
 
# Band-Index    6
   3.10652     -0.222149
   2.96064     -0.218513
   2.81475     -0.336917
   2.66886     -0.690255
   2.52298     -1.012416
   2.37709     -1.158639
   2.23121     -1.075894
   2.08532     -1.519797
   1.93944     -1.669408
   1.79355     -2.185961
   1.79355     -2.185961
   1.72061     -1.915937
   1.64767     -1.592714
   1.57472     -1.493391
   1.50178     -1.436864
   1.42884     -1.474906
   1.35589     -1.546443
   1.28295     -1.597680
   1.21001     -1.628144
   1.13707     -1.638276
   1.13707     -1.638276
   1.01073     -1.645066
   0.88438     -1.668063
   0.75804     -1.680879
   0.63170     -1.492804
   0.50536     -1.127730
   0.37902     -0.490719
   0.25268     -0.277395
   0.12634     -0.218574
   0.00000     -0.222149
 
# Band-Index    7
   0.00000     -0.088437
   0.12634     -0.134517
   0.25268     -0.207144
   0.37902     -0.324319
   0.50536     -0.688240
   0.63170     -0.882600
   0.75804     -0.630741
   0.88438     -0.628959
   1.01073     -0.578785
   1.13707     -0.544811
   1.13707     -0.544811
   1.21001     -0.540436
   1.28295     -0.528042
   1.35589     -0.539904
   1.42884     -0.875452
   1.50178     -1.171891
   1.57472     -1.230392
   1.64767     -1.399706
   1.72061     -1.339197
   1.79355     -1.317995
   1.79355     -1.317995
   1.93944     -1.389504
   2.08532     -1.094395
   2.23121     -0.889313
   2.37709     -0.917902
   2.52298     -0.976633
   2.66886     -0.471731
   2.81475     -0.222692
   2.96064     -0.149481
   3.10652     -0.088437
 
# Band-Index    8
   3.10652     -0.088435
   2.96064     -0.010366
   2.81475      0.225527
   2.66886     -0.212293
   2.52298     -0.739197
   2.37709     -0.679006
   2.23121     -0.787635
   2.08532     -0.915953
   1.93944     -0.757793
   1.79355     -0.493145
   1.79355     -0.493145
   1.72061     -0.666536
   1.64767     -0.888320
   1.57472     -1.099065
   1.50178     -0.846793
   1.42884     -0.483742
   1.35589     -0.494330
   1.28295     -0.230482
   1.21001     -0.185112
   1.13707     -0.190200
   1.13707     -0.190200
   1.01073     -0.247605
   0.88438     -0.405963
   0.75804     -0.607415
   0.63170     -0.496790
   0.50536     -0.451889
   0.37902     -0.070919
   0.25268      0.140368
   0.12634     -0.030369
   0.00000     -0.088435
 
# Band-Index    9
   0.00000      1.051281
   0.12634      0.940666
   0.25268      0.516874
   0.37902      0.123468
   0.50536     -0.291487
   0.63170     -0.240726
   0.75804      0.132657
   0.88438      0.154051
   1.01073      0.071837
   1.13707      0.043788
   1.13707      0.043788
   1.21001     -0.029575
   1.28295     -0.170089
   1.35589     -0.146376
   1.42884     -0.463826
   1.50178     -0.465162
   1.57472     -0.457123
   1.64767     -0.465137
   1.72061     -0.482195
   1.79355     -0.483975
   1.79355     -0.483975
   1.93944     -0.479865
   2.08532     -0.569045
   2.23121     -0.493033
   2.37709     -0.582100
   2.52298     -0.413689
   2.66886     -0.171492
   2.81475      0.337416
   2.96064      0.913218
   3.10652      1.051281
 
# Band-Index   10
   3.10652      1.051287
   2.96064      0.981531
   2.81475      0.662085
   2.66886      0.498973
   2.52298      0.279020
   2.37709     -0.172678
   2.23121     -0.393809
   2.08532     -0.191223
   1.93944     -0.236970
   1.79355     -0.462968
   1.79355     -0.462968
   1.72061     -0.298303
   1.64767     -0.116435
   1.57472     -0.046372
   1.50178     -0.081219
   1.42884     -0.115784
   1.35589     -0.108882
   1.28295      0.184891
   1.21001      0.381534
   1.13707      0.415121
   1.13707      0.415121
   1.01073      0.406963
   0.88438      0.349328
   0.75804      0.283783
   0.63170      0.448141
   0.50536      0.496006
   0.37902      0.410647
   0.25268      0.748595
   0.12634      1.027250
   0.00000      1.051287
 
# Band-Index   11
   0.00000      1.298284
   0.12634      1.088194
   0.25268      0.853243
   0.37902      0.551091
   0.50536      0.613788
   0.63170      0.576408
   0.75804      0.694927
   0.88438      0.562818
   1.01073      0.479691
   1.13707      0.451426
   1.13707      0.451426
   1.21001      0.421076
   1.28295      0.430057
   1.35589      0.430305
   1.42884      0.346500
   1.50178      0.202992
   1.57472      0.051022
   1.64767     -0.015468
   1.72061      0.006631
   1.79355      0.015119
   1.79355      0.015119
   1.93944     -0.027106
   2.08532     -0.165286
   2.23121     -0.328578
   2.37709      0.093892
   2.52298      0.507517
   2.66886      0.589219
   2.81475      0.663617
   2.96064      1.059549
   3.10652      1.298284
 
# Band-Index   12
   3.10652      1.298333
   2.96064      1.251681
   2.81475      0.938906
   2.66886      0.747901
   2.52298      0.620831
   2.37709      0.524457
   2.23121      0.326971
   2.08532      0.118795
   1.93944      0.124798
   1.79355      0.167298
   1.79355      0.167298
   1.72061      0.177292
   1.64767      0.236670
   1.57472      0.349910
   1.50178      0.418233
   1.42884      0.439048
   1.35589      0.494064
   1.28295      0.603455
   1.21001      0.680792
   1.13707      0.708910
   1.13707      0.708910
   1.01073      0.722096
   0.88438      0.760450
   0.75804      0.820641
   0.63170      0.896694
   0.50536      0.803623
   0.37902      0.822721
   0.25268      0.951627
   0.12634      1.265847
   0.00000      1.298333
 
# Band-Index   13
   0.00000      1.579750
   0.12634      1.382320
   0.25268      1.183975
   0.37902      1.084911
   0.50536      0.990928
   0.63170      1.208323
   0.75804      0.837744
   0.88438      1.457398
   1.01073      2.210349
   1.13707      2.595549
   1.13707      2.595549
   1.21001      2.075741
   1.28295      1.688789
   1.35589      1.324619
   1.42884      0.992091
   1.50178      0.706871
   1.57472      0.520121
   1.64767      0.456113
   1.72061      0.425796
   1.79355      0.411748
   1.79355      0.411748
   1.93944      0.498854
   2.08532      0.623711
   2.23121      0.655063
   2.37709      0.640530
   2.52298      0.788231
   2.66886      0.955506
   2.81475      1.116683
   2.96064      1.320858
   3.10652      1.579750
