#K-Path(1/A) Energy-Level(eV)
# NKPTS & NBANDS:  80  13
# Band-Index    1
   0.00000    -15.217983
   0.05069    -15.217498
   0.10138    -15.216304
   0.15207    -15.214022
   0.20275    -15.210824
   0.25344    -15.207230
   0.30413    -15.202558
   0.35482    -15.197250
   0.40551    -15.191133
   0.45620    -15.184814
   0.50688    -15.178417
   0.55757    -15.171894
   0.60826    -15.165427
   0.65895    -15.159837
   0.70964    -15.154201
   0.76033    -15.149221
   0.81101    -15.145137
   0.86170    -15.142038
   0.91239    -15.140557
   0.96308    -15.139952
   0.96308    -15.139952
   1.02161    -15.140972
   1.08014    -15.143850
   1.13867    -15.148705
   1.19720    -15.154864
   1.25573    -15.162446
   1.31426    -15.170867
   1.37279    -15.179765
   1.43132    -15.188913
   1.48985    -15.197692
   1.54838    -15.206441
   1.60691    -15.214788
   1.66544    -15.222483
   1.72397    -15.229390
   1.78250    -15.235515
   1.84103    -15.240565
   1.89956    -15.244081
   1.95809    -15.247012
   2.01662    -15.248785
   2.07515    -15.249379
   2.07515    -15.249379
   2.12142    -15.249153
   2.16769    -15.248605
   2.21396    -15.247785
   2.26024    -15.246432
   2.30651    -15.245001
   2.35278    -15.243178
   2.39905    -15.241191
   2.44532    -15.239320
   2.49160    -15.237530
   2.53787    -15.236021
   2.58414    -15.234861
   2.63041    -15.234078
   2.67668    -15.233795
   2.72295    -15.233871
   2.76923    -15.234284
   2.81550    -15.235226
   2.86177    -15.236161
   2.90804    -15.237208
   2.95431    -15.238007
   2.95431    -15.238007
   3.01639    -15.235288
   3.07848    -15.232204
   3.14056    -15.228660
   3.20264    -15.225158
   3.26472    -15.221191
   3.32680    -15.216568
   3.38888    -15.211478
   3.45096    -15.205752
   3.51304    -15.199111
   3.57512    -15.191928
   3.63720    -15.184585
   3.69928    -15.176661
   3.76136    -15.168836
   3.82344    -15.161170
   3.88552    -15.154125
   3.94760    -15.148152
   4.00968    -15.143458
   4.07176    -15.140934
   4.13384    -15.139952
 
 
# Band-Index    2
   4.13384    -15.139952
   4.07176    -15.139752
   4.00968    -15.139092
   3.94760    -15.138041
   3.88552    -15.136673
   3.82344    -15.135006
   3.76136    -15.132639
   3.69928    -15.130378
   3.63720    -15.127924
   3.57512    -15.125239
   3.51304    -15.122460
   3.45096    -15.119553
   3.38888    -15.117323
   3.32680    -15.115957
   3.26472    -15.114700
   3.20264    -15.113170
   3.14056    -15.111319
   3.07848    -15.109405
   3.01639    -15.106847
   2.95431    -15.104086
   2.95431    -15.104086
   2.90804    -15.105283
   2.86177    -15.106599
   2.81550    -15.108057
   2.76923    -15.109186
   2.72295    -15.110183
   2.67668    -15.110651
   2.63041    -15.110470
   2.58414    -15.109727
   2.53787    -15.108349
   2.49160    -15.106476
   2.44532    -15.104159
   2.39905    -15.101787
   2.35278    -15.099449
   2.30651    -15.097121
   2.26024    -15.094948
   2.21396    -15.093034
   2.16769    -15.091581
   2.12142    -15.090664
   2.07515    -15.090404
   2.07515    -15.090404
   2.01662    -15.090733
   1.95809    -15.091867
   1.89956    -15.093485
   1.84103    -15.096217
   1.78250    -15.098955
   1.72397    -15.102042
   1.66544    -15.105743
   1.60691    -15.109594
   1.54838    -15.113536
   1.48985    -15.117616
   1.43132    -15.121569
   1.37279    -15.125253
   1.31426    -15.128922
   1.25573    -15.131961
   1.19720    -15.134522
   1.13867    -15.136805
   1.08014    -15.138262
   1.02161    -15.139635
   0.96308    -15.139952
   0.96308    -15.139952
   0.91239    -15.139783
   0.86170    -15.139232
   0.81101    -15.138200
   0.76033    -15.137058
   0.70964    -15.135781
   0.65895    -15.134309
   0.60826    -15.132377
   0.55757    -15.130725
   0.50688    -15.129060
   0.45620    -15.127282
   0.40551    -15.125801
   0.35482    -15.124447
   0.30413    -15.123250
   0.25344    -15.122232
   0.20275    -15.121322
   0.15207    -15.120692
   0.10138    -15.120092
   0.05069    -15.119779
   0.00000    -15.119700
 
 
# Band-Index    3
   0.00000    -15.119700
   0.05069    -15.119779
   0.10138    -15.120092
   0.15207    -15.120692
   0.20275    -15.121322
   0.25344    -15.122232
   0.30413    -15.123250
   0.35482    -15.124447
   0.40551    -15.125801
   0.45620    -15.127282
   0.50688    -15.129060
   0.55757    -15.130725
   0.60826    -15.132377
   0.65895    -15.134309
   0.70964    -15.135781
   0.76033    -15.137058
   0.81101    -15.138200
   0.86170    -15.139232
   0.91239    -15.139783
   0.96308    -15.139922
   0.96308    -15.139922
   1.02161    -15.139615
   1.08014    -15.138243
   1.13867    -15.136785
   1.19720    -15.134504
   1.25573    -15.131943
   1.31426    -15.128904
   1.37279    -15.125234
   1.43132    -15.121550
   1.48985    -15.117598
   1.54838    -15.113519
   1.60691    -15.109576
   1.66544    -15.105726
   1.72397    -15.102025
   1.78250    -15.098937
   1.84103    -15.096199
   1.89956    -15.093469
   1.95809    -15.091852
   2.01662    -15.090718
   2.07515    -15.090389
   2.07515    -15.090389
   2.12142    -15.090580
   2.16769    -15.091083
   2.21396    -15.091787
   2.26024    -15.092484
   2.30651    -15.093229
   2.35278    -15.093892
   2.39905    -15.094457
   2.44532    -15.095104
   2.49160    -15.095931
   2.53787    -15.096491
   2.58414    -15.097002
   2.63041    -15.097446
   2.67668    -15.097899
   2.72295    -15.098192
   2.76923    -15.098306
   2.81550    -15.098399
   2.86177    -15.098298
   2.90804    -15.097971
   2.95431    -15.097182
   2.95431    -15.097182
   3.01639    -15.099760
   3.07848    -15.102214
   3.14056    -15.104768
   3.20264    -15.107621
   3.26472    -15.110502
   3.32680    -15.113425
   3.38888    -15.116410
   3.45096    -15.118789
   3.51304    -15.120356
   3.57512    -15.122231
   3.63720    -15.124463
   3.69928    -15.126820
   3.76136    -15.129357
   3.82344    -15.131883
   3.88552    -15.134480
   3.94760    -15.136668
   4.00968    -15.138243
   4.07176    -15.139585
   4.13384    -15.139922
 
 
# Band-Index    4
   4.13384    -15.058815
   4.07176    -15.058891
   4.00968    -15.058809
   3.94760    -15.059046
   3.88552    -15.059414
   3.82344    -15.059927
   3.76136    -15.060404
   3.69928    -15.060932
   3.63720    -15.061289
   3.57512    -15.061439
   3.51304    -15.061508
   3.45096    -15.061411
   3.38888    -15.060793
   3.32680    -15.060030
   3.26472    -15.060566
   3.20264    -15.062549
   3.14056    -15.064818
   3.07848    -15.067690
   3.01639    -15.070356
   2.95431    -15.072983
   2.95431    -15.072983
   2.90804    -15.072095
   2.86177    -15.071092
   2.81550    -15.070096
   2.76923    -15.069194
   2.72295    -15.068667
   2.67668    -15.068607
   2.63041    -15.068991
   2.58414    -15.069906
   2.53787    -15.071133
   2.49160    -15.072646
   2.44532    -15.074325
   2.39905    -15.075985
   2.35278    -15.077708
   2.30651    -15.079352
   2.26024    -15.080834
   2.21396    -15.082202
   2.16769    -15.083322
   2.12142    -15.084116
   2.07515    -15.084417
   2.07515    -15.084417
   2.01662    -15.084201
   1.95809    -15.083559
   1.89956    -15.082507
   1.84103    -15.081290
   1.78250    -15.079378
   1.72397    -15.077420
   1.66544    -15.075399
   1.60691    -15.073562
   1.54838    -15.071331
   1.48985    -15.068741
   1.43132    -15.066859
   1.37279    -15.064930
   1.31426    -15.063370
   1.25573    -15.061866
   1.19720    -15.060536
   1.13867    -15.059630
   1.08014    -15.058907
   1.02161    -15.058934
   0.96308    -15.058815
   0.96308    -15.058815
   0.91239    -15.058828
   0.86170    -15.058697
   0.81101    -15.058622
   0.76033    -15.058558
   0.70964    -15.058658
   0.65895    -15.058712
   0.60826    -15.058462
   0.55757    -15.058404
   0.50688    -15.058247
   0.45620    -15.058031
   0.40551    -15.057786
   0.35482    -15.057414
   0.30413    -15.056959
   0.25344    -15.056467
   0.20275    -15.055776
   0.15207    -15.055355
   0.10138    -15.055210
   0.05069    -15.054800
   0.00000    -15.054746
 
 
# Band-Index    5
   0.00000    -15.054746
   0.05069    -15.054800
   0.10138    -15.055210
   0.15207    -15.055355
   0.20275    -15.055775
   0.25344    -15.056467
   0.30413    -15.056959
   0.35482    -15.057414
   0.40551    -15.057786
   0.45620    -15.058031
   0.50688    -15.058247
   0.55757    -15.058403
   0.60826    -15.058461
   0.65895    -15.058712
   0.70964    -15.058658
   0.76033    -15.058558
   0.81101    -15.058622
   0.86170    -15.058697
   0.91239    -15.058828
   0.96308    -15.058814
   0.96308    -15.058815
   1.02161    -15.058729
   1.08014    -15.058420
   1.13867    -15.058012
   1.19720    -15.057111
   1.25573    -15.056461
   1.31426    -15.055686
   1.37279    -15.054790
   1.43132    -15.053843
   1.48985    -15.052590
   1.54838    -15.051461
   1.60691    -15.050491
   1.66544    -15.049553
   1.72397    -15.048654
   1.78250    -15.047862
   1.84103    -15.047175
   1.89956    -15.046457
   1.95809    -15.046064
   2.01662    -15.045711
   2.07515    -15.045635
   2.07515    -15.045635
   2.12142    -15.045724
   2.16769    -15.046030
   2.21396    -15.046526
   2.26024    -15.047142
   2.30651    -15.048001
   2.35278    -15.048882
   2.39905    -15.049838
   2.44532    -15.050995
   2.49160    -15.052215
   2.53787    -15.053178
   2.58414    -15.054072
   2.63041    -15.054543
   2.67668    -15.054853
   2.72295    -15.054668
   2.76923    -15.054359
   2.81550    -15.053899
   2.86177    -15.053188
   2.90804    -15.052392
   2.95431    -15.051695
   2.95431    -15.051695
   3.01639    -15.053375
   3.07848    -15.055202
   3.14056    -15.056398
   3.20264    -15.057925
   3.26472    -15.059081
   3.32680    -15.058964
   3.38888    -15.057801
   3.45096    -15.057011
   3.51304    -15.056599
   3.57512    -15.056518
   3.63720    -15.056656
   3.69928    -15.056866
   3.76136    -15.057077
   3.82344    -15.057569
   3.88552    -15.057891
   3.94760    -15.058362
   4.00968    -15.058543
   4.07176    -15.058777
   4.13384    -15.058815
 
 
# Band-Index    6
   4.13384    -13.020009
   4.07176    -13.007691
   4.00968    -12.970821
   3.94760    -12.909865
   3.88552    -12.825561
   3.82344    -12.718871
   3.76136    -12.591103
   3.69928    -12.443913
   3.63720    -12.279303
   3.57512    -12.099833
   3.51304    -11.908709
   3.45096    -11.709905
   3.38888    -11.508369
   3.32680    -11.310036
   3.26472    -11.121727
   3.20264    -10.950736
   3.14056    -10.803878
   3.07848    -10.686203
   3.01639    -10.599702
   2.95431    -10.542767
   2.95431    -10.542767
   2.90804    -10.556493
   2.86177    -10.568334
   2.81550    -10.577935
   2.76923    -10.585050
   2.72295    -10.589559
   2.67668    -10.591426
   2.63041    -10.590711
   2.58414    -10.587550
   2.53787    -10.582165
   2.49160    -10.574862
   2.44532    -10.566038
   2.39905    -10.556175
   2.35278    -10.545826
   2.30651    -10.535584
   2.26024    -10.526075
   2.21396    -10.517907
   2.16769    -10.511624
   2.12142    -10.507664
   2.07515    -10.506312
   2.07515    -10.506312
   2.01662    -10.541686
   1.95809    -10.641728
   1.89956    -10.791729
   1.84103    -10.974978
   1.78250    -11.177068
   1.72397    -11.387106
   1.66544    -11.597264
   1.60691    -11.801985
   1.54838    -11.997260
   1.48985    -12.180160
   1.43132    -12.348494
   1.37279    -12.500528
   1.31426    -12.634905
   1.25573    -12.750524
   1.19720    -12.846433
   1.13867    -12.921874
   1.08014    -12.976242
   1.02161    -13.009058
   0.96308    -13.020009
   0.96308    -13.020009
   0.91239    -13.011798
   0.86170    -12.987187
   0.81101    -12.946386
   0.76033    -12.889772
   0.70964    -12.817829
   0.65895    -12.731181
   0.60826    -12.630646
   0.55757    -12.517320
   0.50688    -12.392485
   0.45620    -12.257832
   0.40551    -12.115552
   0.35482    -11.968466
   0.30413    -11.820232
   0.25344    -11.675614
   0.20275    -11.540632
   0.15207    -11.422572
   0.10138    -11.329613
   0.05069    -11.269763
   0.00000    -11.249059
 
 
# Band-Index    7
   0.00000     -6.943490
   0.05069     -6.906575
   0.10138     -6.798155
   0.15207     -6.624395
   0.20275     -6.393561
   0.25344     -6.114201
   0.30413     -5.794035
   0.35482     -5.439725
   0.40551     -5.056756
   0.45620     -4.649721
   0.50688     -4.222607
   0.55757     -3.778963
   0.60826     -3.322126
   0.65895     -2.855485
   0.70964     -2.382642
   0.76033     -1.907648
   0.81101     -1.435486
   0.86170     -0.973185
   0.91239     -0.535473
   0.96308     -0.242470
   0.96308     -0.242470
   1.02161     -0.573179
   1.08014     -1.030420
   1.13867     -1.494309
   1.19720     -1.956318
   1.25573     -2.414112
   1.31426     -2.866488
   1.37279     -3.312561
   1.43132     -3.751473
   1.48985     -4.182091
   1.54838     -4.602930
   1.60691     -5.011852
   1.66544     -5.405911
   1.72397     -5.780974
   1.78250     -6.131280
   1.84103     -6.448718
   1.89956     -6.722033
   1.95809     -6.936627
   2.01662     -7.075513
   2.07515     -7.123846
   2.07515     -7.123846
   2.12142     -7.118273
   2.16769     -7.101937
   2.21396     -7.075960
   2.26024     -7.042153
   2.30651     -7.002935
   2.35278     -6.961173
   2.39905     -6.919996
   2.44532     -6.882509
   2.49160     -6.851412
   2.53787     -6.828740
   2.58414     -6.815576
   2.63041     -6.811984
   2.67668     -6.817147
   2.72295     -6.829562
   2.76923     -6.847390
   2.81550     -6.868692
   2.86177     -6.891603
   2.90804     -6.914498
   2.95431     -6.936009
   2.95431     -6.936009
   3.01639     -6.865815
   3.07848     -6.772660
   3.14056     -6.648429
   3.20264     -6.486538
   3.26472     -6.283008
   3.32680     -6.036714
   3.38888     -5.748539
   3.45096     -5.420506
   3.51304     -5.055162
   3.57512     -4.655177
   3.63720     -4.223258
   3.69928     -3.762188
   3.76136     -3.274992
   3.82344     -2.765168
   3.88552     -2.237025
   3.94760     -1.696462
   4.00968     -1.152379
   4.07176     -0.622223
   4.13384     -0.242470
 
 
# Band-Index    8
   4.13384     -0.242470
   4.07176     -0.285495
   4.00968     -0.411534
   3.94760     -0.611691
   3.88552     -0.872314
   3.82344     -1.177378
   3.76136     -1.510985
   3.69928     -1.859151
   3.63720     -2.210233
   3.57512     -2.554790
   3.51304     -2.885105
   3.45096     -3.194572
   3.38888     -3.477095
   3.32680     -3.726670
   3.26472     -3.936902
   3.20264     -4.100667
   3.14056     -4.210175
   3.07848     -4.257592
   3.01639     -4.236489
   2.95431     -4.144308
   2.95431     -4.144308
   2.90804     -4.178098
   2.86177     -4.194599
   2.81550     -4.193780
   2.76923     -4.175791
   2.72295     -4.141010
   2.67668     -4.090019
   2.63041     -4.023649
   2.58414     -3.943030
   2.53787     -3.849613
   2.49160     -3.745268
   2.44532     -3.632358
   2.39905     -3.513914
   2.35278     -3.393717
   2.30651     -3.276430
   2.26024     -3.167628
   2.21396     -3.073613
   2.16769     -3.000776
   2.12142     -2.954664
   2.07515     -2.938896
   2.07515     -2.938896
   2.01662     -2.927353
   1.95809     -2.892802
   1.89956     -2.835431
   1.84103     -2.755611
   1.78250     -2.653799
   1.72397     -2.530684
   1.66544     -2.387151
   1.60691     -2.224329
   1.54838     -2.043642
   1.48985     -1.846958
   1.43132     -1.636716
   1.37279     -1.416119
   1.31426     -1.189614
   1.25573     -0.963296
   1.19720     -0.745713
   1.13867     -0.548686
   1.08014     -0.387617
   1.02161     -0.280359
   0.96308     -0.242470
   0.96308     -0.242470
   0.91239     -0.254682
   0.86170     -0.290267
   0.81101     -0.346343
   0.76033     -0.418863
   0.70964     -0.503342
   0.65895     -0.595403
   0.60826     -0.691140
   0.55757     -0.787332
   0.50688     -0.881266
   0.45620     -0.970793
   0.40551     -1.054234
   0.35482     -1.130244
   0.30413     -1.197789
   0.25344     -1.256068
   0.20275     -1.304471
   0.15207     -1.342545
   0.10138     -1.369958
   0.05069     -1.386488
   0.00000     -1.392014
 
 
# Band-Index    9
   0.00000     -1.392014
   0.05069     -1.386488
   0.10138     -1.369958
   0.15207     -1.342545
   0.20275     -1.304471
   0.25344     -1.256068
   0.30413     -1.197789
   0.35482     -1.130244
   0.40551     -1.054234
   0.45620     -0.970793
   0.50688     -0.881266
   0.55757     -0.787332
   0.60826     -0.691140
   0.65895     -0.595403
   0.70964     -0.503342
   0.76033     -0.418862
   0.81101     -0.346343
   0.86170     -0.290267
   0.91239     -0.254682
   0.96308     -0.242460
   0.96308     -0.242460
   1.02161     -0.280352
   1.08014     -0.387610
   1.13867     -0.548679
   1.19720     -0.745706
   1.25573     -0.963288
   1.31426     -1.189606
   1.37279     -1.416111
   1.43132     -1.636708
   1.48985     -1.846950
   1.54838     -2.043634
   1.60691     -2.224320
   1.66544     -2.387143
   1.72397     -2.530676
   1.78250     -2.653790
   1.84103     -2.755602
   1.89956     -2.835423
   1.95809     -2.892794
   2.01662     -2.927345
   2.07515     -2.938887
   2.07515     -2.938887
   2.12142     -2.951531
   2.16769     -2.987013
   2.21396     -3.038993
   2.26024     -3.099240
   2.30651     -3.159270
   2.35278     -3.211197
   2.39905     -3.248246
   2.44532     -3.264998
   2.49160     -3.257562
   2.53787     -3.223866
   2.58414     -3.163877
   2.63041     -3.079779
   2.67668     -2.976080
   2.72295     -2.859767
   2.76923     -2.740577
   2.81550     -2.631198
   2.86177     -2.547012
   2.90804     -2.504431
   2.95431     -2.516857
   2.95431     -2.516857
   3.01639     -2.380994
   3.07848     -2.230371
   3.14056     -2.067318
   3.20264     -1.894586
   3.26472     -1.715302
   3.32680     -1.532991
   3.38888     -1.351569
   3.45096     -1.175129
   3.51304     -1.007690
   3.57512     -0.853043
   3.63720     -0.714333
   3.69928     -0.593749
   3.76136     -0.492396
   3.82344     -0.410264
   3.88552     -0.346370
   3.94760     -0.299223
   4.00968     -0.267116
   4.07176     -0.248542
   4.13384     -0.242460
 
 
# Band-Index   10
   4.13384      0.105367
   4.07176      0.446058
   4.00968      0.857690
   3.94760      1.205116
   3.88552      1.483816
   3.82344      1.707582
   3.76136      1.893391
   3.69928      2.052995
   3.63720      2.190875
   3.57512      2.304862
   3.51304      2.387675
   3.45096      2.429780
   3.38888      2.424089
   3.32680      2.370419
   3.26472      2.276563
   3.20264      2.154915
   3.14056      2.018116
   3.07848      1.876746
   3.01639      1.738830
   2.95431      1.610099
   2.95431      1.610099
   2.90804      1.703260
   2.86177      1.895452
   2.81550      2.172674
   2.76923      2.517149
   2.72295      2.909491
   2.67668      3.323843
   2.63041      3.696248
   2.58414      3.804964
   2.53787      3.529379
   2.49160      3.153357
   2.44532      2.780107
   2.39905      2.428138
   2.35278      2.104981
   2.30651      1.816616
   2.26024      1.569052
   2.21396      1.368458
   2.16769      1.220705
   2.12142      1.130341
   2.07515      1.099964
   2.07515      1.099964
   2.01662      1.083523
   1.95809      1.060904
   1.89956      1.055953
   1.84103      1.075412
   1.78250      1.120990
   1.72397      1.192783
   1.66544      1.290226
   1.60691      1.412301
   1.54838      1.557408
   1.48985      1.722954
   1.43132      1.904084
   1.37279      2.088319
   1.31426      2.219777
   1.25573      2.095943
   1.19720      1.749049
   1.13867      1.330942
   1.08014      0.885124
   1.02161      0.434479
   0.96308      0.105367
   0.96308      0.105367
   0.91239      0.363816
   0.86170      0.693653
   0.81101      0.964119
   0.76033      1.151176
   0.70964      1.250867
   0.65895      1.277149
   0.60826      1.252176
   0.55757      1.196199
   0.50688      1.124091
   0.45620      1.045722
   0.40551      0.967426
   0.35482      0.893291
   0.30413      0.825983
   0.25344      0.767185
   0.20275      0.718034
   0.15207      0.679219
   0.10138      0.651221
   0.05069      0.634320
   0.00000      0.628672
 
 
# Band-Index   11
   0.00000      4.342271
   0.05069      4.345357
   0.10138      4.354135
   0.15207      4.367170
   0.20275      4.382006
   0.25344      4.395113
   0.30413      4.401990
   0.35482      4.397345
   0.40551      4.375710
   0.45620      4.332458
   0.50688      4.265024
   0.55757      4.174078
   0.60826      4.063682
   0.65895      3.940739
   0.70964      3.814115
   0.76033      3.693180
   0.81101      3.554900
   0.86170      3.475477
   0.91239      3.442044
   0.96308      3.433659
   0.96308      3.433659
   1.02161      3.389775
   1.08014      3.268331
   1.13867      3.093709
   1.19720      2.895670
   1.25573      2.719580
   1.31426      2.706829
   1.37279      2.867289
   1.43132      2.973803
   1.48985      2.964057
   1.54838      2.849033
   1.60691      2.664550
   1.66544      2.445679
   1.72397      2.217809
   1.78250      1.997239
   1.84103      1.794173
   1.89956      1.615391
   1.95809      1.466522
   2.01662      1.356728
   2.07515      1.311097
   2.07515      1.311097
   2.12142      1.346467
   2.16769      1.449765
   2.21396      1.613932
   2.26024      1.830209
   2.30651      2.089855
   2.35278      2.384900
   2.39905      2.707937
   2.44532      3.051382
   2.49160      3.405832
   2.53787      3.756953
   2.58414      4.101664
   2.63041      4.493146
   2.67668      4.891018
   2.72295      5.128556
   2.76923      5.130978
   2.81550      4.985175
   2.86177      4.775443
   2.90804      4.543883
   2.95431      4.308434
   2.95431      4.308434
   3.01639      4.985438
   3.07848      5.507119
   3.14056      5.690588
   3.20264      5.615097
   3.26472      5.467901
   3.32680      5.326436
   3.38888      5.145829
   3.45096      4.847726
   3.51304      4.552916
   3.57512      4.285929
   3.63720      4.051375
   3.69928      3.851987
   3.76136      3.690039
   3.82344      3.567541
   3.88552      3.485362
   3.94760      3.441275
   4.00968      3.427651
   4.07176      3.430342
   4.13384      3.433659
 
 
# Band-Index   12
   4.13384      3.433659
   4.07176      3.445504
   4.00968      3.481053
   3.94760      3.540314
   3.88552      3.623329
   3.82344      3.730179
   3.76136      3.861072
   3.69928      4.016092
   3.63720      4.195546
   3.57512      4.399721
   3.51304      4.628853
   3.45096      4.883104
   3.38888      5.162530
   3.32680      5.466794
   3.26472      5.795426
   3.20264      6.147515
   3.14056      6.521758
   3.07848      6.916075
   3.01639      7.317956
   2.95431      7.590233
   2.95431      7.589734
   2.90804      7.381827
   2.86177      6.934053
   2.81550      6.445135
   2.76923      5.959065
   2.72295      5.495690
   2.67668      5.114195
   2.63041      4.858747
   2.58414      4.852087
   2.53787      5.208338
   2.49160      5.712133
   2.44532      6.265101
   2.39905      6.839186
   2.35278      7.420473
   2.30651      7.996400
   2.26024      8.550265
   2.21396      9.055808
   2.16769      9.470405
   2.12142      9.735907
   2.07515      9.817788
   2.07515      9.817792
   2.01662      9.725599
   1.95809      9.478234
   1.89956      9.131886
   1.84103      8.730869
   1.78250      8.302091
   1.72397      7.860081
   1.66544      7.413167
   1.60691      6.966468
   1.54838      6.523514
   1.48985      6.087216
   1.43132      5.660834
   1.37279      5.248052
   1.31426      4.853607
   1.25573      4.484192
   1.19720      4.148707
   1.13867      3.859344
   1.08014      3.632062
   1.02161      3.484860
   0.96308      3.433659
   0.96308      3.433659
   0.91239      3.451737
   0.86170      3.504395
   0.81101      3.587158
   0.76033      3.693181
   0.70964      3.814115
   0.65895      3.940739
   0.60826      4.063683
   0.55757      4.174078
   0.50688      4.265024
   0.45620      4.332458
   0.40551      4.375711
   0.35482      4.397345
   0.30413      4.401990
   0.25344      4.395113
   0.20275      4.382006
   0.15207      4.367170
   0.10138      4.354135
   0.05069      4.345357
   0.00000      4.342271
 
 
# Band-Index   13
   0.00000      7.324349
   0.05069      7.327587
   0.10138      7.334567
   0.15207      7.335312
   0.20275      7.305687
   0.25344      7.198601
   0.30413      6.966898
   0.35482      6.624559
   0.40551      6.223742
   0.45620      5.801700
   0.50688      5.378552
   0.55757      4.967131
   0.60826      4.578873
   0.65895      4.227296
   0.70964      3.929644
   0.76033      3.702963
   0.81101      3.587159
   0.86170      3.504395
   0.91239      3.451737
   0.96308      3.433679
   0.96308      3.433679
   1.02161      3.484875
   1.08014      3.632076
   1.13867      3.859357
   1.19720      4.148720
   1.25573      4.484204
   1.31426      4.853619
   1.37279      5.248071
   1.43132      5.660875
   1.48985      6.087252
   1.54838      6.523542
   1.60691      6.979742
   1.66544      7.413703
   1.72397      7.869938
   1.78250      8.331658
   1.84103      8.743809
   1.89956      9.157611
   1.95809      9.870710
   2.01662      9.735635
   2.07515     10.262144
   2.07515      9.821278
   2.12142      9.757278
   2.16769      9.611965
   2.21396      9.409995
   2.26024      9.170153
   2.30651      8.900960
   2.35278      8.609205
   2.39905      8.302149
   2.44532      7.986588
   2.49160      7.668689
   2.53787      7.356538
   2.58414      7.059643
   2.63041      6.794646
   2.67668      6.596424
   2.72295      6.532947
   2.76923      6.658038
   2.81550      6.913440
   2.86177      7.202575
   2.90804      7.473277
   2.95431      7.753675
   2.95431      7.753216
   3.01639      7.327655
   3.07848      7.188811
   3.14056      6.809756
   3.20264      6.375542
   3.26472      5.964012
   3.32680      5.588350
   3.38888      5.327590
   3.45096      5.269428
   3.51304      5.282532
   3.57512      5.312285
   3.63720      5.307201
   3.69928      5.211674
   3.76136      4.992502
   3.82344      4.667479
   3.88552      4.295389
   3.94760      3.943477
   4.00968      3.665370
   4.07176      3.491907
   4.13384      3.433679
