#K-Path(1/A) Energy-Level(eV)
# NKPTS & NBANDS: 100   9
# Band-Index    1
   0.00000     -7.072410
   0.05731     -7.063300
   0.11463     -7.039213
   0.17194     -6.999471
   0.22925     -6.944892
   0.28656     -6.876970
   0.34388     -6.815154
   0.40119     -6.979033
   0.45850     -7.150676
   0.51581     -7.326040
   0.57313     -7.501169
   0.63044     -7.672027
   0.68775     -7.834506
   0.74507     -7.984425
   0.80238     -8.118428
   0.85969     -8.232888
   0.91700     -8.325003
   0.97432     -8.392662
   1.03163     -8.433796
   1.08894     -8.447617
   1.08894     -8.447617
   1.15914     -8.447507
   1.22933     -8.448134
   1.29952     -8.453789
   1.36972     -8.470186
   1.43991     -8.506316
   1.51010     -8.574891
   1.58030     -8.689637
   1.65049     -8.859809
   1.72068     -9.084791
   1.79088     -9.350638
   1.86107     -9.636870
   1.93126     -9.923199
   2.00146    -10.193404
   2.07165    -10.435892
   2.14184    -10.642479
   2.21204    -10.807774
   2.28223    -10.928064
   2.35242    -11.001121
   2.42262    -11.025572
   2.42262    -11.025572
   2.50367    -10.992953
   2.58472    -10.895434
   2.66578    -10.734529
   2.74683    -10.512780
   2.82788    -10.234408
   2.90893     -9.906060
   2.98998     -9.538242
   3.07104     -9.147928
   3.15209     -8.762045
   3.23314     -8.419807
   3.31419     -8.164644
   3.39525     -8.019756
   3.47630     -7.973878
   3.55735     -7.992010
   3.63840     -8.040998
   3.71946     -8.097385
   3.80051     -8.146143
   3.88156     -8.177897
   3.96261     -8.189653
   3.96261     -8.189653
   4.00314     -8.184084
   4.04367     -8.167437
   4.08419     -8.140151
   4.12472     -8.102333
   4.16525     -8.054083
   4.20577     -7.996181
   4.24630     -7.929334
   4.28682     -7.854436
   4.32735     -7.772597
   4.36788     -7.685196
   4.40840     -7.593940
   4.44893     -7.500934
   4.48946     -7.409493
   4.52998     -7.321261
   4.57051     -7.240539
   4.61103     -7.171368
   4.65156     -7.117930
   4.69209     -7.084043
   4.73261     -7.072410
   4.73261     -7.072410
   4.77314     -7.084043
   4.81366     -7.117930
   4.85419     -7.171368
   4.89472     -7.240539
   4.93524     -7.321261
   4.97577     -7.409493
   5.01630     -7.500934
   5.05682     -7.593940
   5.09735     -7.685196
   5.13787     -7.772597
   5.17840     -7.854436
   5.21893     -7.929334
   5.25945     -7.996181
   5.29998     -8.054083
   5.34051     -8.102333
   5.38103     -8.140151
   5.42156     -8.167437
   5.46208     -8.184084
   5.50261     -8.189653
 
# Band-Index    2
   5.50261     -7.862931
   5.46208     -7.858390
   5.42156     -7.844772
   5.38103     -7.822233
   5.34051     -7.790578
   5.29998     -7.749823
   5.25945     -7.700051
   5.21893     -7.641290
   5.17840     -7.573565
   5.13787     -7.496892
   5.09735     -7.411318
   5.05682     -7.316903
   5.01630     -7.213702
   4.97577     -7.101973
   4.93524     -6.981373
   4.89472     -6.852200
   4.85419     -6.714539
   4.81366     -6.568493
   4.77314     -6.414887
   4.73261     -6.252982
   4.73261     -6.252982
   4.69209     -6.414887
   4.65156     -6.568493
   4.61103     -6.714539
   4.57051     -6.852200
   4.52998     -6.981373
   4.48946     -7.101973
   4.44893     -7.213702
   4.40840     -7.316903
   4.36788     -7.411318
   4.32735     -7.496892
   4.28682     -7.573565
   4.24630     -7.641290
   4.20577     -7.700051
   4.16525     -7.749823
   4.12472     -7.790578
   4.08419     -7.822233
   4.04367     -7.844772
   4.00314     -7.858390
   3.96261     -7.862931
   3.96261     -7.862931
   3.88156     -7.850888
   3.80051     -7.815168
   3.71946     -7.756034
   3.63840     -7.674587
   3.55735     -7.572212
   3.47630     -7.450723
   3.39525     -7.312402
   3.31419     -7.159978
   3.23314     -6.996723
   3.15209     -6.826411
   3.07104     -6.653323
   2.98998     -6.482205
   2.90893     -6.320342
   2.82788     -6.167883
   2.74683     -6.035404
   2.66578     -5.926345
   2.58472     -5.844668
   2.50367     -5.794128
   2.42262     -5.777011
   2.42262     -5.777011
   2.35242     -5.785213
   2.28223     -5.808975
   2.21204     -5.845820
   2.14184     -5.891483
   2.07165     -5.942059
   2.00146     -5.986940
   1.93126     -6.015982
   1.86107     -6.015145
   1.79088     -5.966313
   1.72068     -5.847942
   1.65049     -5.639155
   1.58030     -5.592127
   1.51010     -5.641597
   1.43991     -5.689683
   1.36972     -5.733004
   1.29952     -5.768773
   1.22933     -5.795803
   1.15914     -5.812535
   1.08894     -5.818171
   1.08894     -5.818171
   1.03163     -5.827148
   0.97432     -5.853813
   0.91700     -5.895722
   0.85969     -5.955125
   0.80238     -6.028017
   0.74507     -6.112213
   0.68775     -6.205363
   0.63044     -6.304647
   0.57313     -6.407102
   0.51581     -6.510651
   0.45850     -6.612059
   0.40119     -6.707822
   0.34388     -6.797288
   0.28656     -6.663093
   0.22925     -6.527310
   0.17194     -6.414531
   0.11463     -6.327071
   0.05731     -6.271836
   0.00000     -6.252982
 
# Band-Index    3
   0.00000     -6.252982
   0.05731     -6.241878
   0.11463     -6.211629
   0.17194     -6.162039
   0.22925     -6.092140
   0.28656     -6.002076
   0.34388     -5.892206
   0.40119     -5.761220
   0.45850     -5.608387
   0.51581     -5.435873
   0.57313     -5.242471
   0.63044     -5.168546
   0.68775     -5.314272
   0.74507     -5.444820
   0.80238     -5.557474
   0.85969     -5.650617
   0.91700     -5.723432
   0.97432     -5.776322
   1.03163     -5.807702
   1.08894     -5.818171
   1.08894     -5.818171
   1.15914     -5.812535
   1.22933     -5.795803
   1.29952     -5.768773
   1.36972     -5.733004
   1.43991     -5.689683
   1.51010     -5.641597
   1.58030     -5.592127
   1.65049     -5.543281
   1.72068     -5.505607
   1.79088     -5.482757
   1.86107     -5.480273
   1.93126     -5.500427
   2.00146     -5.541834
   2.07165     -5.594748
   2.14184     -5.650773
   2.21204     -5.702031
   2.28223     -5.742479
   2.35242     -5.768200
   2.42262     -5.777011
   2.42262     -5.777011
   2.50367     -5.762123
   2.58472     -5.717541
   2.66578     -5.643569
   2.74683     -5.540356
   2.82788     -5.410341
   2.90893     -5.255693
   2.98998     -5.071966
   3.07104     -5.045427
   3.15209     -5.096535
   3.23314     -5.044016
   3.31419     -4.840762
   3.39525     -4.459621
   3.47630     -3.916499
   3.55735     -3.383818
   3.63840     -3.190490
   3.71946     -3.132691
   3.80051     -3.089557
   3.88156     -3.064685
   3.96261     -3.056014
   3.96261     -3.056014
   4.00314     -3.062596
   4.04367     -3.082269
   4.08419     -3.117214
   4.12472     -3.164007
   4.16525     -3.348940
   4.20577     -3.566515
   4.24630     -3.790978
   4.28682     -4.018208
   4.32735     -4.245370
   4.36788     -4.470464
   4.40840     -4.692062
   4.44893     -4.909095
   4.48946     -5.120801
   4.52998     -5.326414
   4.57051     -5.525515
   4.61103     -5.717703
   4.65156     -5.902610
   4.69209     -6.081681
   4.73261     -6.252982
   4.73261     -6.252982
   4.77314     -6.081681
   4.81366     -5.902610
   4.85419     -5.717703
   4.89472     -5.525515
   4.93524     -5.326414
   4.97577     -5.120801
   5.01630     -4.909095
   5.05682     -4.692062
   5.09735     -4.470464
   5.13787     -4.245370
   5.17840     -4.018208
   5.21893     -3.790978
   5.25945     -3.566515
   5.29998     -3.348940
   5.34051     -3.164007
   5.38103     -3.117214
   5.42156     -3.082269
   5.46208     -3.062596
   5.50261     -3.056014
 
# Band-Index    4
   5.50261     -2.677645
   5.46208     -2.712481
   5.42156     -2.810964
   5.38103     -2.955886
   5.34051     -3.144285
   5.29998     -3.222397
   5.25945     -3.292372
   5.21893     -3.373096
   5.17840     -3.463439
   5.13787     -3.561973
   5.09735     -3.666905
   5.05682     -3.776058
   5.01630     -3.886779
   4.97577     -3.998876
   4.93524     -4.102641
   4.89472     -4.196918
   4.85419     -4.277132
   4.81366     -4.338628
   4.77314     -4.377655
   4.73261     -4.394154
   4.73261     -4.394154
   4.69209     -4.377655
   4.65156     -4.338628
   4.61103     -4.277132
   4.57051     -4.196918
   4.52998     -4.102641
   4.48946     -3.998876
   4.44893     -3.886779
   4.40840     -3.776058
   4.36788     -3.666905
   4.32735     -3.561973
   4.28682     -3.463439
   4.24630     -3.373096
   4.20577     -3.292372
   4.16525     -3.222397
   4.12472     -3.144285
   4.08419     -2.955886
   4.04367     -2.810964
   4.00314     -2.712481
   3.96261     -2.677645
   3.96261     -2.677645
   3.88156     -2.709848
   3.80051     -2.809896
   3.71946     -2.961305
   3.63840     -3.156575
   3.55735     -3.383814
   3.47630     -3.631417
   3.39525     -3.888981
   3.31419     -4.149556
   3.23314     -4.402524
   3.15209     -4.643488
   3.07104     -4.867845
   2.98998     -5.071963
   2.90893     -5.255691
   2.82788     -5.410338
   2.74683     -5.540353
   2.66578     -5.643566
   2.58472     -5.717539
   2.50367     -5.762121
   2.42262     -5.777008
   2.42262     -5.777008
   2.35242     -5.768200
   2.28223     -5.742479
   2.21204     -5.702031
   2.14184     -5.650773
   2.07165     -5.594748
   2.00146     -5.541834
   1.93126     -5.500427
   1.86107     -5.480273
   1.79088     -5.482757
   1.72068     -5.505607
   1.65049     -5.543281
   1.58030     -5.327836
   1.51010     -4.914413
   1.43991     -4.414802
   1.36972     -3.853715
   1.29952     -3.265110
   1.22933     -3.080844
   1.15914     -3.031961
   1.08894     -3.014261
   1.08894     -3.014261
   1.03163     -3.138637
   0.97432     -3.399684
   0.91700     -3.693259
   0.85969     -3.986199
   0.80238     -4.271383
   0.74507     -4.541572
   0.68775     -4.795211
   0.63044     -5.028972
   0.57313     -5.011349
   0.51581     -4.852113
   0.45850     -4.699755
   0.40119     -4.566750
   0.34388     -4.465113
   0.28656     -4.400185
   0.22925     -4.371028
   0.17194     -4.369463
   0.11463     -4.377385
   0.05731     -4.388487
   0.00000     -4.394154
 
# Band-Index    5
   0.00000     -2.683323
   0.05731     -2.696945
   0.11463     -2.748343
   0.17194     -2.825724
   0.22925     -2.913932
   0.28656     -3.004869
   0.34388     -3.081936
   0.40119     -3.131066
   0.45850     -3.153763
   0.51581     -3.156015
   0.57313     -3.144665
   0.63044     -3.126032
   0.68775     -3.104286
   0.74507     -3.082421
   0.80238     -3.062284
   0.85969     -3.044920
   0.91700     -3.032020
   0.97432     -3.022315
   1.03163     -3.016282
   1.08894     -3.014261
   1.08894     -3.014261
   1.15914     -3.031961
   1.22933     -3.080844
   1.29952     -3.166146
   1.36972     -3.282592
   1.43991     -3.415970
   1.51010     -3.563245
   1.58030     -3.716525
   1.65049     -3.866152
   1.72068     -4.005110
   1.79088     -4.123080
   1.86107     -4.212276
   1.93126     -4.268897
   2.00146     -4.293244
   2.07165     -4.296703
   2.14184     -4.283657
   2.21204     -4.268183
   2.28223     -4.252421
   2.35242     -4.241276
   2.42262     -4.237283
   2.42262     -4.237283
   2.50367     -4.255426
   2.58472     -4.308838
   2.66578     -4.394591
   2.74683     -4.514304
   2.82788     -4.650311
   2.90893     -4.795518
   2.98998     -4.934331
   3.07104     -4.867842
   3.15209     -4.643486
   3.23314     -4.402521
   3.31419     -4.149553
   3.39525     -3.888977
   3.47630     -3.631413
   3.55735     -3.261042
   3.63840     -3.156571
   3.71946     -2.961301
   3.80051     -2.809892
   3.88156     -2.709843
   3.96261     -2.677640
   3.96261     -2.677640
   4.00314     -2.677608
   4.04367     -2.677511
   4.08419     -2.677355
   4.12472     -2.678067
   4.16525     -2.677910
   4.20577     -2.677711
   4.24630     -2.677474
   4.28682     -2.677201
   4.32735     -2.676895
   4.36788     -2.676547
   4.40840     -2.676166
   4.44893     -2.675764
   4.48946     -2.682744
   4.52998     -2.682520
   4.57051     -2.682280
   4.61103     -2.682020
   4.65156     -2.681736
   4.69209     -2.683156
   4.73261     -2.683323
   4.73261     -2.683323
   4.77314     -2.683156
   4.81366     -2.681736
   4.85419     -2.682020
   4.89472     -2.682280
   4.93524     -2.682520
   4.97577     -2.682744
   5.01630     -2.675764
   5.05682     -2.676166
   5.09735     -2.676547
   5.13787     -2.676895
   5.17840     -2.677201
   5.21893     -2.677474
   5.25945     -2.677711
   5.29998     -2.677910
   5.34051     -2.678067
   5.38103     -2.677355
   5.42156     -2.677511
   5.46208     -2.677608
   5.50261     -2.677640
 
# Band-Index    6
   5.50261     -0.093410
   5.46208     -0.052954
   5.42156      0.062374
   5.38103      0.238721
   5.34051      0.457760
   5.29998      0.711128
   5.25945      0.988173
   5.21893      1.282628
   5.17840      1.590120
   5.13787      1.907514
   5.09735      2.232467
   5.05682      2.563139
   5.01630      2.898008
   4.97577      3.235244
   4.93524      3.574715
   4.89472      3.767037
   4.85419      3.728269
   4.81366      3.700334
   4.77314      3.683437
   4.73261      3.676319
   4.73261      3.676319
   4.69209      3.683437
   4.65156      3.700334
   4.61103      3.728269
   4.57051      3.767037
   4.52998      3.574715
   4.48946      3.235244
   4.44893      2.898008
   4.40840      2.563139
   4.36788      2.232467
   4.32735      1.907514
   4.28682      1.590120
   4.24630      1.282628
   4.20577      0.988173
   4.16525      0.711128
   4.12472      0.457760
   4.08419      0.238721
   4.04367      0.062374
   4.00314     -0.052954
   3.96261     -0.093410
   3.96261     -0.093410
   3.88156     -0.340626
   3.80051     -0.946927
   3.71946     -1.705915
   3.63840     -2.494734
   3.55735     -3.247134
   3.47630     -3.342093
   3.39525     -3.431140
   3.31419     -3.525739
   3.23314     -3.622719
   3.15209     -3.719561
   3.07104     -3.813668
   2.98998     -3.902609
   2.90893     -3.987263
   2.82788     -4.060111
   2.74683     -4.122023
   2.66578     -4.171632
   2.58472     -4.207845
   2.50367     -4.229883
   2.42262     -4.237283
   2.42262     -4.237283
   2.35242     -4.241276
   2.28223     -4.252421
   2.21204     -4.268183
   2.14184     -4.283657
   2.07165     -4.296703
   2.00146     -4.293244
   1.93126     -4.268897
   1.86107     -4.212276
   1.79088     -4.123080
   1.72068     -4.005110
   1.65049     -3.866152
   1.58030     -3.716525
   1.51010     -3.563245
   1.43991     -3.415970
   1.36972     -3.282592
   1.29952     -3.166146
   1.22933     -2.702520
   1.15914     -2.260793
   1.08894     -2.083836
   1.08894     -2.083836
   1.03163     -1.944552
   0.97432     -1.638769
   0.91700     -1.269854
   0.85969     -0.869703
   0.80238     -0.451044
   0.74507     -0.017736
   0.68775      0.424964
   0.63044      0.879625
   0.57313      1.343208
   0.51581      1.812155
   0.45850      2.097968
   0.40119      2.190349
   0.34388      2.319699
   0.28656      2.492011
   0.22925      2.710833
   0.17194      2.972868
   0.11463      3.268356
   0.05731      3.545881
   0.00000      3.676319
 
# Band-Index    7
   0.00000      5.249132
   0.05731      5.159215
   0.11463      4.909284
   0.17194      4.553612
   0.22925      4.140304
   0.28656      3.693185
   0.34388      3.228103
   0.40119      2.756223
   0.45850      2.285368
   0.51581      2.035978
   0.57313      1.998133
   0.63044      1.978438
   0.68775      1.972248
   0.74507      1.976829
   0.80238      1.984945
   0.85969      1.995559
   0.91700      2.005842
   0.97432      2.012471
   1.03163      2.018109
   1.08894      2.020062
   1.08894      2.020062
   1.15914      2.241262
   1.22933      2.817502
   1.29952      3.598552
   1.36972      4.499240
   1.43991      5.476649
   1.51010      6.499953
   1.58030      7.551736
   1.65049      8.621052
   1.72068      9.690358
   1.79088     10.750832
   1.86107     11.790587
   1.93126     12.794615
   2.00146     13.730853
   2.07165     14.448225
   2.14184     14.598584
   2.21204     14.493147
   2.28223     14.378297
   2.35242     14.299197
   2.42262     14.271454
   2.42262     14.271455
   2.50367     14.308746
   2.58472     14.419146
   2.66578     14.598278
   2.74683     14.840674
   2.82788     15.134079
   2.90893     15.467711
   2.98998     15.737548
   3.07104     15.074436
   3.15209     14.291258
   3.23314     13.499789
   3.31419     12.723299
   3.39525     11.982585
   3.47630     10.687798
   3.55735      9.323143
   3.63840      8.028968
   3.71946      6.833107
   3.80051      5.790153
   3.88156      5.019107
   3.96261      4.714109
   3.96261      4.714109
   4.00314      4.705559
   4.04367      4.680282
   4.08419      4.638013
   4.12472      4.581449
   4.16525      4.514606
   4.20577      4.438636
   4.24630      4.356326
   4.28682      4.270515
   4.32735      4.183946
   4.36788      4.099142
   4.40840      4.018326
   4.44893      3.943403
   4.48946      3.874871
   4.52998      3.816139
   4.57051      3.914773
   4.61103      4.254325
   4.65156      4.592299
   4.69209      4.922451
   4.73261      5.249132
   4.73261      5.249132
   4.77314      4.922450
   4.81366      4.592299
   4.85419      4.254325
   4.89472      3.914773
   4.93524      3.816139
   4.97577      3.874871
   5.01630      3.943403
   5.05682      4.018326
   5.09735      4.099142
   5.13787      4.183946
   5.17840      4.270515
   5.21893      4.356326
   5.25945      4.438636
   5.29998      4.514606
   5.34051      4.581449
   5.38103      4.638013
   5.42156      4.680282
   5.46208      4.705559
   5.50261      4.714109
 
# Band-Index    8
   5.50261      9.086182
   5.46208      9.072925
   5.42156      9.033271
   5.38103      8.967542
   5.34051      8.876279
   5.29998      8.760345
   5.25945      8.620696
   5.21893      8.458458
   5.17840      8.274875
   5.13787      8.071251
   5.09735      7.849053
   5.05682      7.609742
   5.01630      7.354790
   4.97577      7.085539
   4.93524      6.803690
   4.89472      6.510506
   4.85419      6.207369
   4.81366      5.895620
   4.77314      5.575148
   4.73261      5.249132
   4.73261      5.249132
   4.69209      5.575148
   4.65156      5.895620
   4.61103      6.207369
   4.57051      6.510506
   4.52998      6.803690
   4.48946      7.085539
   4.44893      7.354790
   4.40840      7.609742
   4.36788      7.849054
   4.32735      8.071251
   4.28682      8.274875
   4.24630      8.458458
   4.20577      8.620697
   4.16525      8.760345
   4.12472      8.876279
   4.08419      8.967543
   4.04367      9.033271
   4.00314      9.072925
   3.96261      9.086182
   3.96261      9.086182
   3.88156      9.154888
   3.80051      9.357702
   3.71946      9.686128
   3.63840     10.127706
   3.55735     10.667915
   3.47630     11.291408
   3.39525     11.982588
   3.31419     12.723300
   3.23314     13.499790
   3.15209     14.291259
   3.07104     15.074480
   2.98998     15.820788
   2.90893     15.987688
   2.82788     16.314119
   2.74683     16.708806
   2.66578     17.153872
   2.58472     17.607243
   2.50367     17.979976
   2.42262     18.132501
   2.42262     18.132501
   2.35242     17.925376
   2.28223     17.389411
   2.21204     16.677068
   2.14184     15.912155
   2.07165     15.347440
   2.00146     15.288772
   1.93126     15.359122
   1.86107     15.375488
   1.79088     15.295749
   1.72068     15.125006
   1.65049     14.893715
   1.58030     14.634401
   1.51010     14.379593
   1.43991     14.145599
   1.36972     13.944135
   1.29952     13.782513
   1.22933     13.664514
   1.15914     13.592745
   1.08894     13.568728
   1.08894     13.568728
   1.03163     13.582587
   0.97432     13.619586
   0.91700     13.668039
   0.85969     13.693492
   0.80238     13.656558
   0.74507     13.517737
   0.68775     13.124638
   0.63044     12.374660
   0.57313     11.610440
   0.51581     10.836385
   0.45850     10.062428
   0.40119      9.297209
   0.34388      8.545453
   0.28656      7.817949
   0.22925      7.122014
   0.17194      6.466105
   0.11463      5.888823
   0.05731      5.438253
   0.00000      5.249132
 
# Band-Index    9
   0.00000      8.419215
   0.05731      8.523015
   0.11463      8.785424
   0.17194      9.158815
   0.22925      9.598676
   0.28656     10.074708
   0.34388     10.570010
   0.40119     11.072186
   0.45850     11.563546
   0.51581     12.047843
   0.57313     12.505737
   0.63044     12.917632
   0.68775     13.264948
   0.74507     13.848495
   0.80238     14.531886
   0.85969     15.157519
   0.91700     15.700322
   0.97432     16.126741
   1.03163     16.406764
   1.08894     16.503796
   1.08894     16.503796
   1.15914     16.549329
   1.22933     16.684902
   1.29952     16.903985
   1.36972     17.197508
   1.43991     17.552140
   1.51010     17.947796
   1.58030     18.355138
   1.65049     18.734898
   1.72068     19.023291
   1.79088     19.172335
   1.86107     19.172535
   1.93126     19.061301
   2.00146     18.885150
   2.07165     18.693382
   2.14184     18.509733
   2.21204     18.352037
   2.28223     18.232323
   2.35242     18.157784
   2.42262     18.132502
   2.42262     18.132503
   2.50367     18.101356
   2.58472     18.000196
   2.66578     17.808246
   2.74683     17.503028
   2.82788     17.061225
   2.90893     16.489459
   2.98998     15.837303
   3.07104     15.558958
   3.15209     15.408030
   3.23314     14.910585
   3.31419     13.545417
   3.39525     12.105385
   3.47630     11.291408
   3.55735     10.667915
   3.63840     10.127706
   3.71946      9.686129
   3.80051      9.357702
   3.88156      9.154888
   3.96261      9.086183
   3.96261      9.086183
   4.00314      9.078515
   4.04367      9.056217
   4.08419      9.021266
   4.12472      8.975496
   4.16525      8.923305
   4.20577      8.867263
   4.24630      8.810015
   4.28682      8.753676
   4.32735      8.699806
   4.36788      8.649582
   4.40840      8.603773
   4.44893      8.562875
   4.48946      8.521141
   4.52998      8.490379
   4.57051      8.465160
   4.61103      8.445551
   4.65156      8.431587
   4.69209      8.422405
   4.73261      8.419215
   4.73261      8.419215
   4.77314      8.422405
   4.81366      8.431587
   4.85419      8.445551
   4.89472      8.465160
   4.93524      8.490379
   4.97577      8.521141
   5.01630      8.562875
   5.05682      8.603773
   5.09735      8.649582
   5.13787      8.699806
   5.17840      8.753676
   5.21893      8.810015
   5.25945      8.867263
   5.29998      8.923305
   5.34051      8.975496
   5.38103      9.021266
   5.42156      9.056217
   5.46208      9.078515
   5.50261      9.086183
